#   1 NUMBER                 Running object number                                     
#   2 MAG_AUTO               Kron-like elliptical aperture magnitude                    [mag]
#   3 X_IMAGE                Object position along x                                    [pixel]
#   4 Y_IMAGE                Object position along y                                    [pixel]
#   5 X_WORLD                Barycenter position along world x axis                     [deg]
#   6 Y_WORLD                Barycenter position along world y axis                     [deg]
#   7 A_WORLD                Profile RMS along major axis (world units)                 [deg]
#   8 B_WORLD                Profile RMS along minor axis (world units)                 [deg]
#   9 THETA_WORLD            Position angle (CCW/world-x)                               [deg]
#  10 FWHM_WORLD             FWHM assuming a gaussian core                              [deg]
#  11 ELONGATION             A_IMAGE/B_IMAGE                                           
#  12 ELLIPTICITY            1 - B_IMAGE/A_IMAGE                                       
         1 -14.9438    159.0330     43.1252   8.3932039585e+01   4.0251533827e+01     1.507291     1.087756 -21.38  0.004213566    1.363    0.267
         2 -14.7224    171.5864     10.2495   7.0634660350e+01   4.0769496594e+01     1.348519     1.060359  48.30  0.004670726    1.277    0.217
         3 -12.6724    189.6113     13.8691   6.9764536778e+01   3.5875966140e+01    0.5770791    0.2450853 -31.01  0.002236137    2.102    0.524
         4 -12.0330    168.0232    242.5162   1.2539137638e+02   7.8085667609e+00    0.2959166     0.150276 -42.54  0.001619858    2.572    0.611
         5 -13.3392    189.6627    249.7074   1.2261771710e+02   4.3153088929e+00    0.5388526    0.2212056  30.98  0.001924412    1.841    0.457
         6 -14.0869    197.4750    245.4410   1.2082134478e+02   3.7739626845e+00     0.483314    0.4619154  48.65  0.004196108    1.791    0.442
         7 -12.0600    176.1734    248.9826   1.2476050201e+02   6.0681060396e+00    0.2266752    0.1705786  -8.91 0.0008168047    1.485    0.327
         8 -12.9850    179.3263    243.4890   1.2358879695e+02   6.2606553636e+00    0.2791102    0.1712554  35.09  0.001989968    1.280    0.219
         9 -20.2412     80.4670    181.3170   1.3548891414e+02   2.8594425790e+01     14.01775     5.871107 -66.44   0.06788297    2.682    0.627
        10 -14.5198    177.6259    172.1063   1.1340560955e+02   1.5646925439e+01    0.8316519    0.5680287 -42.09  0.004803092    1.701    0.412
        11 -10.3169     28.7515    241.0407   1.4970349856e+02   2.3919599276e+01    0.1236184   0.08415991  64.25 0.0005223186    1.193    0.162
        12 -11.9961    167.6021    174.4610   1.1579671838e+02   1.6922125306e+01    0.2147276    0.1968248 -16.00 0.0007171675    1.195    0.163
        13 -11.2395     21.8749    239.3965   1.5080669286e+02   2.4776513018e+01    0.1212631   0.09292897  62.22 0.0004555277    1.115    0.103
        14  -9.8594      7.6266    237.0114   1.5312211104e+02   2.6334875324e+01    0.1047322   0.07087918  75.17 0.0004206515    1.287    0.223
        15 -12.8358    199.3378    222.6831   1.1748977220e+02   5.9224275174e+00     0.326348     0.167688  40.04  0.001013809    1.777    0.437
        16 -12.4352    185.7340    167.9250   1.1107888546e+02   1.4927677593e+01    0.3795964    0.1988075 -36.08  0.001923898    2.016    0.504
        17 -12.0391    230.1625    166.6037   1.0294641551e+02   7.9721792486e+00    0.2719308    0.1479259 -40.67  0.001414677    2.383    0.580
        18 -11.9970    201.1821    165.1470   1.0767303588e+02   1.2773746067e+01    0.3027082    0.2549036 -62.15  0.000898639    1.984    0.496
        19 -12.9937    154.0178    162.4411   1.1646327041e+02   2.1082716802e+01    0.3108611    0.2635235  58.37  0.001364881    1.424    0.298
        20 -11.2920    222.6674    162.0656   1.0331465445e+02   9.6991195570e+00     0.280183    0.1886446 -46.51   0.00101814    2.238    0.553
        21 -13.6073    163.5789    157.6986   1.1357523431e+02   2.0244180764e+01    0.4046929     0.369263  89.78  0.002493663    1.519    0.342
        22 -14.0392    135.9783    128.7972   1.1385483439e+02   3.0330183891e+01     1.648518    0.3160918 -49.39  0.003821557    7.297    0.863
        23 -14.5216    143.4308    143.5398   1.1519266817e+02   2.6217217013e+01     1.015799    0.5152327 -53.32  0.004375274    2.439    0.590
        24 -14.3165    134.0151    146.0562   1.1784991387e+02   2.7390821817e+01     1.349969    0.4141189 -54.62  0.004002237    5.207    0.808
        25 -11.6200    139.6973    148.9605   1.1710017625e+02   2.5876922523e+01    0.2657752    0.2157337  31.31 0.0004139918    1.150    0.130
        26 -11.9932     16.3420    250.1364   1.5205608191e+02   2.3661012358e+01    0.1209057     0.090599  68.27  0.001115855    1.196    0.164
        27 -10.0466     30.6547    211.1983   1.4808021120e+02   2.8538458705e+01      0.10457   0.05284176  50.33 0.0001826589    1.520    0.342
        28 -10.9405    191.9636    153.9811   1.0719899119e+02   1.5907779993e+01    0.3477914    0.1914683 -13.03  0.001547412    2.456    0.593
        29 -11.0857     16.5186    154.1085   1.4797440214e+02   4.0678711569e+01    0.3359928    0.2126399 -18.86  0.001912043    2.690    0.628
        30 -12.8751    174.1842    148.6148   1.0960215920e+02   1.9858024191e+01    0.3740477    0.3193669 -45.39  0.001433607    1.401    0.286
        31 -10.3449    182.4316    149.1966   1.0807053974e+02   1.8298825646e+01    0.1744342    0.1243966 -44.64 0.0007168444    1.657    0.396
        32 -13.0488     11.7844    206.1453   1.5143903793e+02   3.1039365974e+01    0.4739872    0.2185416  29.68  0.002698267    2.064    0.515
        33 -11.1539     30.7953    206.5344   1.4782258737e+02   2.9331749814e+01    0.2172264    0.1747096  31.11  0.001629419    1.376    0.273
        34 -14.2730    152.2719    144.3704   1.1338020501e+02   2.4495614575e+01    0.6565119    0.4950397 -54.66  0.003553919    1.606    0.377
        35 -12.1394    175.6844    142.1509   1.0795368414e+02   2.0627288906e+01    0.2333086    0.1814965  44.96  0.000660849    1.361    0.265
        36 -11.7082    168.8667    202.3671   1.2000150643e+02   1.2695916280e+01    0.1955937    0.1702418  55.55 0.0006240675    1.515    0.340
        37 -11.9006     27.5050    145.5265   1.4464604198e+02   4.1623527069e+01    0.2784787    0.2658017  89.03  0.001174841    1.189    0.159
        38 -12.6659    155.6930    190.6678   1.2079639235e+02   1.6331674954e+01    0.3723351    0.2370249  52.89  0.001170269    1.905    0.475
        39 -13.3054    154.3801    186.0308   1.2034637660e+02   1.7236148323e+01    0.4585324    0.2672965  43.71  0.002340191    1.615    0.381
        40 -13.3266    160.8360    128.2082   1.0802382762e+02   2.5759434101e+01    0.4658025    0.3946742  31.81  0.002084025    1.132    0.117
        41 -12.8267    154.1923    195.8892   1.2186843646e+02   1.5779660584e+01     0.431537    0.3171037 -77.80  0.002464338    2.490    0.598
        42 -13.2105    157.5962    202.5039   1.2215947208e+02   1.4322010420e+01    0.4378131    0.3597914  54.81  0.002208869    1.491    0.329
        43 -12.1766    163.9242    203.0543   1.2103304891e+02   1.3323191546e+01    0.2481103    0.2161167  34.78 0.0003845098    1.204    0.170
        44 -12.7940    161.7282    197.6691   1.2066644798e+02   1.4402242981e+01    0.3614416    0.3232456  70.75  0.001798978    1.572    0.364
        45  -9.7260    160.2819    243.6270   1.2684533453e+02   8.6682097632e+00   0.09703075   0.07237218  53.57 0.0007013553    1.703    0.413
        46 -10.1351     24.5426    202.8504   1.4885807986e+02   3.0541108274e+01    0.1367587   0.08908267 -87.38 0.0008347454    1.480    0.324
        47 -12.6269    138.2762    198.5414   1.2539081637e+02   1.7713093751e+01    0.5445371    0.3491683  55.95  0.002716395    1.896    0.473
        48 -10.3151      1.1347    197.4233   1.5317386095e+02   3.3403910705e+01   0.08934402   0.05509002 -75.23  0.000635427    1.675    0.403
        49 -10.9353    205.4081    110.1711   9.4935842989e+01   1.9869207383e+01    0.2985448    0.1874527  35.26  0.001057744    1.615    0.381
        50  99.0000     13.0968    242.8267   1.5237585189e+02   2.5007602472e+01    0.2208984   0.08703034 -57.27  0.001294618    4.049    0.753
        51 -11.4474     23.8505    106.9542   1.4191854375e+02   5.0721368201e+01    0.2667106    0.1897006   7.36  0.001272006    1.810    0.447
        52 -12.0682    148.5439    188.5077   1.2189926681e+02   1.7744986153e+01    0.2188862    0.1747544  18.83 0.0006397972    1.170    0.146
        53 -12.2979     48.1161     92.7342   1.3170105323e+02   5.1880206136e+01    0.4029129    0.2807155  19.46  0.002170788    1.700    0.412
        54 -11.8724     41.5751     92.4679   1.3391184773e+02   5.2627593297e+01    0.4046152    0.2668831 -38.56  0.001275651    1.680    0.405
        55 -13.8220    195.6241    171.0607   1.0980103051e+02   1.2868991138e+01    0.6887325    0.3867017 -42.81   0.00295712    2.178    0.541
        56 -14.2497    207.4701    178.0412   1.0893423899e+02   1.0069039162e+01    0.8562895     0.582156 -29.39  0.004353771    1.537    0.349
        57 -11.5673      3.9776     89.9092   1.4661683832e+02   5.6037469105e+01    0.3493704     0.154407 -11.51  0.001536071    3.761    0.734
        58 -12.1574    203.0923    172.3261   1.0867382437e+02   1.1499491752e+01    0.3190646    0.2389227 -16.83  0.001415938    1.284    0.221
        59 -10.6951    142.8088     80.1890   9.9559106765e+01   3.8190905004e+01    0.2214403    0.2079911 -48.39 0.0006821449    1.152    0.132
        60 -14.4418    148.3136     57.7013   9.1080573346e+01   4.0738279767e+01     1.200895    0.9527557 -14.46 0.0008992151    1.279    0.218
        61 -11.8178    123.2573    185.0971   1.2664172864e+02   2.2074268042e+01    0.3426427    0.2057276  50.55  0.001151469    1.703    0.413
        62 -13.2413    162.6815     34.5619   8.0326844570e+01   4.0444189213e+01    0.4580998    0.4203595 -15.78 0.0008710771    1.056    0.053
        63 -10.7894     13.5353     59.9339   1.3881313401e+02   6.2713840560e+01    0.1753037    0.1564074 -63.19 0.0004318625    1.086    0.079
        64 -11.0732    150.9792    241.6158   1.2823533114e+02   1.0090899633e+01    0.1791313    0.1579823 -47.78  0.001495509    1.565    0.361
